#Wavelength (um), Relative FLux (Jy, Norm to 1 at 18um)
       6.0000003      0.12419323
       6.0627625      0.16720380
       6.1261811      0.25963015
       6.1902632      0.37292116
       6.2550156      0.37972910
       6.3204453      0.29234125
       6.3865594      0.21949693
       6.4533651      0.18385401
       6.5208696      0.16116717
       6.5890802      0.15384567
       6.6580043      0.16191485
       6.7276495      0.16931877
       6.7980231      0.17141170
       6.8691328      0.17514194
       6.9409864      0.20673250
       7.0135916      0.23078106
       7.0869563      0.24144950
       7.1610884      0.25897547
       7.2359959      0.28590784
       7.3116870      0.34220884
       7.3881699      0.41708226
       7.4654528      0.50794166
       7.5435441      0.58643767
       7.6224523      0.63020577
       7.7021859      0.62999319
       7.7827535      0.60499018
       7.8641639      0.55829557
       7.9464258      0.48748437
       8.0295483      0.41296482
       8.1135403      0.36082788
       8.1984108      0.33289661
       8.2841691      0.32263770
       8.3708245      0.32795178
       8.4583863      0.34857460
       8.5468640      0.36383414
       8.6362673      0.34816232
       8.7266057      0.29351480
       8.8178892      0.22571113
       8.9101274      0.17171221
       9.0033306      0.14041368
       9.0975086      0.12327415
       9.1926718      0.11511210
       9.2888304      0.10917550
       9.3859949      0.10440733
       9.4841758      0.10645485
       9.5833837      0.11412652
       9.6836293      0.11301531
       9.7849235      0.10505011
       9.8872773      0.10217229
       9.9907018      0.10214500
       10.095208     0.099791833
       10.200808     0.098609298
       10.307512      0.10339657
       10.415332      0.11429897
       10.524280      0.13187278
       10.634368      0.14939137
       10.745607      0.16032423
       10.858010      0.18185021
       10.971589      0.24969416
       11.086355      0.39253888
       11.202323      0.57514762
       11.319503      0.58811611
       11.437909      0.44818972
       11.557554      0.32636064
       11.678450      0.26687891
       11.800611      0.26178180
       11.924049      0.27781976
       12.048779      0.28179976
       12.174813      0.28795503
       12.302166      0.31508399
       12.430851      0.35034605
       12.560883      0.40094207
       12.692274      0.47344214
       12.825040      0.46733232
       12.959194      0.32216958
       13.094752      0.24447650
       13.231728      0.22674270
       13.370136      0.22225953
       13.509993      0.22112877
       13.651312      0.20728476
       13.794110      0.19371651
       13.938401      0.19123134
       14.084202      0.19070795
       14.231528      0.20694670
       14.380394      0.21060310
       14.530818      0.19646324
       14.682816      0.18567471
       14.836404      0.18300211
       14.991598      0.18287028
       15.148415      0.18605314
       15.306873      0.19518280
       15.466988      0.21934017
       15.628779      0.22997705
       15.792261      0.21790339
       15.957454      0.21728018
       16.124375      0.23646492
       16.293041      0.28853385
       16.463472      0.34589767
       16.635686      0.35321146
       16.809701      0.35948292
       16.985537      0.39581798
       17.163212      0.39724100
       17.342745      0.36169135
       17.524156      0.31818508
       17.707465      0.28550527
       17.892692      0.25975115
       18.079856      0.23749271
       18.268977      0.23278451
       18.460077      0.25708584
       18.653176      0.31728795
       18.848295      0.30563180
       19.045455      0.25106012
       19.244678      0.23312374
       19.445984      0.22833065
       19.649396      0.22907677
       19.854935      0.23359801
       20.062625      0.23546560
       20.272487      0.24823000
       20.484545      0.25686719
       20.698821      0.26148619
       20.915338      0.26741012
       21.134120      0.27391919
       21.355190      0.28187217
       21.578573      0.29169453
       21.804293      0.29970545
       22.032373      0.30507108
       22.262840      0.31046996
       22.495717      0.31667244
       22.731030      0.32500952
       22.968805      0.33676135
       23.209067      0.34872353
       23.451842      0.36029339
       23.697157      0.37155779
       23.945037      0.37951791
       24.195511      0.38539414
       24.448605      0.39377332
       24.704346      0.40612170
       24.962762      0.41853804
       25.223882      0.43260520
       25.487732      0.45392816
       25.754343      0.47812959
       26.023743      0.48716897
       26.295961      0.48346804
       26.571026      0.48387862
       26.848968      0.48950068
       27.129818      0.49923550
       27.413606      0.51345545
       27.700362      0.53213269
       27.990117      0.55368390
       28.282904      0.56802080
       28.578753      0.57357600
       28.877697      0.58207895
       29.179768      0.59823040
       29.484999      0.61816054
       29.793423      0.63306764
       30.105073      0.64400285
       30.419983      0.66642108
       30.738186      0.68907663
       31.059719      0.70378375
       31.384615      0.73015269
       31.712909      0.76199420
       32.044637      0.78553843
       32.379836      0.80912313
       32.718540      0.85810107
       33.060788      0.97250407
       33.406616       1.0958686
       33.756061       1.0385531
       34.109161       1.0183113
       34.465955       1.2645373
       34.826482       1.4908787
       35.190779       1.2463546
       35.558887       1.1036413
       35.930846       1.1564637
       36.306695       1.2123078
       36.686476       1.2480719
       37.070230       1.2835679
       37.457998       1.3196472
       37.849822       1.3563652
       38.245745       1.3936897
       38.645809       1.4316567
       39.050058       1.4702735
       39.458535       1.5095335
       39.871286       1.5494902
       40.288354       1.5901078
       40.709784       1.6314357
       41.135623       1.6734668
       41.565917       1.7162098
       42.000711       1.7597070
       42.440053       1.8039267
       42.883992       1.8489332
       43.332574       1.8946997
       43.785848       1.9412546
       44.243863       1.9886251
       44.706670       2.0367865
       45.174318       2.0858190
       45.646857       2.1356725
       46.124340       2.1864001
       46.606817       2.2380098
       47.094341       2.2904931
       47.586965       2.3439236
       48.084741       2.3982505
       48.587725       2.4535452
       49.095970       2.5097940
       49.609531       2.5670111
       50.128465       2.6252521
       50.652826       2.6844755
       51.182673       2.7447699
       51.718062       2.8060953
       52.259052       2.8684951
       52.805700       2.9320024
       53.358066       2.9965836
       53.916211       3.0623523
       54.480194       3.1292351
       55.050076       3.1973082
       55.625920       3.2665795
       56.207787       3.3370414
       56.795740       3.4087873
       57.389844       3.4817531
       57.990162       3.5560385
       58.596760       3.6316174
       59.209703       3.7085170
       59.829058       3.7868064
       60.454891       3.8664287
       61.087271       3.9475150
       61.726266       4.0299986
       62.371945       4.1139456
       63.024377       4.1993958
       63.683635       4.2863091
       64.349789       4.3748348
       65.022910       4.4648756
       65.703073       4.5565376
       66.390351       4.6498246
       67.084818       4.7447319
       67.786549       4.8413859
       68.495621       4.9396953
       69.212109       5.0398013
       69.936093       5.1416632
       70.667649       5.2453226
       71.406858       5.3508666
       72.153799       5.4582234
       72.908554       5.5675700
       73.671204       5.6788131
       74.441831       5.7920479
       75.220519       5.9073194
       76.007352       6.0245799
       76.802417       6.1440297
       77.605797       6.2655338
       78.417582       6.3892438
       79.237858       6.5151544
       80.066714       6.6432684
       80.904241       6.7737471
       81.750528       6.9064720
       82.605668       7.0416390
       83.469752       7.1791809
       84.342876       7.3191629
       85.225133       7.4616994
       86.116618       7.6066890
       87.017429       7.7543821
       87.927662       7.9046388
       88.847417       8.0575974
       89.776793       8.2133097
       90.715890       8.3717203
       91.664811       8.5330866
       92.623657       8.6972336
       93.592534       8.8643688
       94.571545       9.0344767
       95.560798       9.2075684
       96.560398       9.3838531
       97.570454       9.5631709
       98.591076       9.7457911
       99.622374       9.9316181
       100.66446       10.114158
       101.71745       10.289618
       102.78145       10.461278
       103.85658       10.628928
       104.94295       10.792359
       106.04070       10.951374
       107.14992       11.105783
       108.27075       11.255403
       109.40330       11.400063
       110.54769       11.539598
       111.70406       11.673855
       112.87253       11.802689
       114.05321       11.925967
       115.24625       12.043564
       116.45177       12.155366
       117.66990       12.261271
       118.90076       12.361185
       120.14451       12.455027
       121.40126       12.542725
       122.67116       12.624217
       123.95435       12.699454
       125.25096       12.768396
       126.56113       12.831014
       127.88500       12.887287
       129.22272       12.937208
       130.57444       12.980776
       131.94029       13.018004
       133.32044       13.048910
       134.71502       13.073525
       136.12418       13.091886
       137.54809       13.104043
       138.98689       13.110050
       140.44075       13.109971
       141.90981       13.103879
       143.39423       13.091853
       144.89419       13.073980
       146.40983       13.050354
       147.94133       13.021074
       149.48885       12.986246
       151.05256       12.945984
       152.63262       12.900404
       154.22922       12.849628
       155.84251       12.793785
       157.47268       12.733005
       159.11990       12.667424
       160.78435       12.597181
       162.46621       12.522418
       164.16566       12.443280
       165.88290       12.359915
       167.61809       12.272472
       169.37144       12.181102
       171.14312       12.085959
       172.93334       11.987196
       174.74228       11.884969
       176.57015       11.779433
       178.41714       11.670744
       180.28345       11.559056
       182.16927       11.444527
       184.07483       11.327309
       186.00032       11.207557
       187.94595       11.085424
       189.91193       10.961061
       191.89848       10.834618
       193.90580       10.706244
       195.93413       10.576084
       197.98367       10.444283
       200.05465       10.310982
       202.14729       10.176322
       204.26183       10.040439
       206.39848       9.9034666
       208.55748       9.7655372
       210.73907       9.6267790
       212.94347       9.4873172
       215.17094       9.3472743
       217.42170       9.2067692
       219.69601       9.0659178
       221.99411       8.9248326
       224.31625       8.7836227
       226.66267       8.6423936
       229.03365       8.5012477
       231.42942       8.3602837
       233.85026       8.2195967
       236.29641       8.0792786
       238.76816       7.9394175
       241.26576       7.8000981
       243.78949       7.6614018
       246.33961       7.5234062
       248.91641       7.3861856
       251.52017       7.2498110
       254.15116       7.1143500
       256.80967       6.9798666
       259.49599       6.8464217
       262.21041       6.7140731
       264.95323       6.5828751
       267.72473       6.4528791
       270.52523       6.3241332
       273.35502       6.1966827
       276.21441       6.0705698
       279.10371       5.9458339
       282.02324       5.8225115
       284.97330       5.7006363
       287.95422       5.5802396
       290.96633       5.4613497
       294.00994       5.3439926
       297.08539       5.2281918
       300.19301       5.1139685
       303.33313       5.0013414
       306.50611       4.8903272
       309.71227       4.7809401
       312.95197       4.6731926
       316.22556       4.5670950
       319.53339       4.4626557
       322.87583       4.3598812
       326.25322       4.2587762
       329.66595       4.1593439
       333.11437       4.0615857
       336.59887       3.9655013
       340.11981       3.8710891
       343.67759       3.7783462
       347.27258       3.6872679
       350.90517       3.5978487
       354.57577       3.5100816
       358.28476       3.4239584
       362.03254       3.3394699
       365.81953       3.2566059
       369.64614       3.1753552
       373.51277       3.0957056
       377.41985       3.0176441
       381.36779       2.9411568
       385.35704       2.8662292
       389.38801       2.7928461
       393.46115       2.7209913
       397.57689       2.6506485
       401.73569       2.5818004
       405.93799       2.5144295
       410.18424       2.4485177
       414.47492       2.3840464
       418.81047       2.3209967
       423.19138       2.2593493
       427.61811       2.1990847
       432.09115       2.1401830
       436.61098       2.0826241
       441.17809       2.0263878
       445.79297       1.9714534
       450.45612       1.9178004
       455.16805       1.8654080
       459.92927       1.8142554
       464.74030       1.7643216
       469.60165       1.7155858
       474.51385       1.6680269
       479.47743       1.6216240
       484.49294       1.5763562
       489.56091       1.5322025
       494.68189       1.4891421
       499.85644       1.4471544
       505.08512       1.4062186
       510.36849       1.3663142
       515.70713       1.3274209
       521.10161       1.2895184
       526.55252       1.2525866
       532.06045       1.2166056
       537.62599       1.1815556
       543.24975       1.1474171
       548.93234       1.1141708
       554.67436       1.0817976
       560.47646       1.0502784
       566.33924       1.0195947
       572.26335      0.98972788
       578.24943      0.96065986
       584.29813      0.93237262
       590.41009      0.90484842
       596.58600      0.87806980
       602.82650      0.85201955
       609.13228      0.82668071
       615.50402      0.80203660
       621.94241      0.77807079
       628.44815      0.75476713
       635.02195      0.73210974
       641.66450      0.71008299
       648.37654      0.68867156
       655.15879      0.66786037
       662.01199      0.64763462
       668.93687      0.62797979
       675.93419      0.60888162
       683.00470      0.59032614
       690.14918      0.57229963
       697.36838      0.55478864
       704.66311      0.53778000
       712.03414      0.52126080
       719.48227      0.50521839
       727.00831      0.48964038
       734.61308      0.47451465
       742.29739      0.45982932
       750.06209      0.44557277
       757.90801      0.43173365
       765.83600      0.41830084
       773.84691      0.40526345
       781.94163      0.39261088
       790.12102      0.38033271
       798.38597      0.36841882
       806.73737      0.35685926
       815.17613      0.34564436
       823.70317      0.33476465
       832.31940      0.32421089
       841.02576      0.31397406
       849.82319      0.30404535
       858.71264      0.29441617
       867.69508      0.28507814
       876.77148      0.27602306
       885.94283      0.26724298
       895.21011      0.25873010
       904.57432      0.25047684
       914.03649      0.24247580
       923.59764      0.23471977
       933.25881      0.22720173
       943.02103      0.21991484
       952.88536      0.21285241
       962.85289      0.20600796
       972.92467      0.19937516
       983.10181      0.19294784
       993.38541      0.18672001
       1003.7766      0.18068581
       1014.2764      0.17483957
       1024.8861      0.16917574
       1035.6068      0.16368895
       1046.4396      0.15837394
       1057.3858      0.15322563
       1068.4464      0.14823905
       1079.6227      0.14340937
       1090.9160      0.13873190
