#Wavelength (um), Relative FLux (Jy, Norm to 1 at 18um)
       5.5000002     0.036683699
       5.5575322     0.046311280
       5.6156659     0.056039569
       5.6744078     0.065092365
       5.7337641     0.066422220
       5.7937414     0.062004569
       5.8543460     0.066172668
       5.9155845     0.070821653
       5.9774637     0.089063739
       6.0399901      0.10992885
       6.1031705      0.13855156
       6.1670119      0.27434735
       6.2315210      0.33712798
       6.2967050      0.24411841
       6.3625707      0.17692469
       6.4291255      0.14103773
       6.4963765      0.12320004
       6.5643309      0.12379193
       6.6329961      0.13073995
       6.7023797      0.13452557
       6.7724889      0.13538453
       6.8433316      0.13978495
       6.9149153      0.15499122
       6.9872478      0.20224888
       7.0603369      0.18310198
       7.1341906      0.19976251
       7.2088167      0.21726648
       7.2842235      0.25104924
       7.3604191      0.30131347
       7.4374117      0.38073179
       7.5152097      0.48138559
       7.5938215      0.55348356
       7.6732556      0.55765519
       7.7535206      0.54119467
       7.8346252      0.51714555
       7.9165782      0.45130687
       7.9993884      0.37722825
       8.0830649      0.32144307
       8.1676166      0.29531518
       8.2530528      0.29134259
       8.3393827      0.29872313
       8.4266157      0.31478696
       8.5147611      0.35146780
       8.6038285      0.36555696
       8.6938276      0.31796744
       8.7847682      0.24693169
       8.8766600      0.19672072
       8.9695130      0.18841971
       9.0633374      0.16204021
       9.1581431      0.14642421
       9.2539406      0.14410637
       9.3507401      0.14168679
       9.4485522      0.14128089
       9.5473874      0.14351258
       9.6472565      0.15118205
       9.7481703      0.14513763
       9.8501396      0.13987476
       9.9531756      0.14187336
       10.057289      0.14493845
       10.162492      0.14912204
       10.268796      0.15505658
       10.376211      0.17009542
       10.484750      0.21413695
       10.594424      0.21699858
       10.705245      0.21330433
       10.817226      0.22098588
       10.930378      0.25717089
       11.044714      0.33461615
       11.160245      0.57767015
       11.276986      0.71774836
       11.394947      0.53623990
       11.514142      0.42408412
       11.634584      0.37503833
       11.756286      0.36458150
       11.879261      0.39435871
       12.003522      0.41589094
       12.129084      0.41241037
       12.255958      0.40293872
       12.384160      0.47980396
       12.513703      0.54497762
       12.644600      0.62265792
       12.776867      0.87731511
       12.910518      0.62546727
       13.045567      0.44848615
       13.182028      0.44956739
       13.319917      0.45639796
       13.459248      0.46623744
       13.600036      0.47683751
       13.742298      0.47290022
       13.886047      0.48260453
       14.031300      0.50043027
       14.178072      0.50812454
       14.326380      0.51441658
       14.476239      0.51947632
       14.627666      0.52287615
       14.780676      0.52883048
       14.935288      0.53675988
       15.091516      0.54918662
       15.249379      0.56464406
       15.408893      0.66499219
       15.570075      0.86273932
       15.732944      0.68194077
       15.897516      0.66440538
       16.063810      0.68792397
       16.231843      0.74424262
       16.401634      0.86226641
       16.573201      0.87801795
       16.746562      0.89377241
       16.921737      0.95368076
       17.098745       1.0153413
       17.277604       1.0033689
       17.458334      0.99681975
       17.640954      0.97074851
       17.825485      0.99822751
       18.011946      0.99912913
       18.200357       1.0227488
       18.390739       1.0530412
       18.583113       1.2218678
       18.777499       1.3877708
       18.973918       1.1755539
       19.172392       1.2176898
       19.372942       1.2496328
       19.575590       1.2809547
       19.780358       1.3148258
       19.987268       1.3449574
       20.196342       1.3733619
       20.407603       1.4173385
       20.621073       1.4860096
       20.836777       1.5033977
       21.054737       1.5473061
       21.274978       1.6242179
       21.497521       1.6042174
       21.722393       1.7141902
       21.949617       1.7876146
       22.179218       1.7789732
       22.411221       1.8731862
       22.645650       1.9498064
       22.882532       1.9602995
       23.121891       2.0488461
       23.363754       2.1440092
       23.608148       2.1519798
       23.855097       2.1907432
       24.104630       2.2764619
       24.356773       2.3060309
       24.611554       2.3400050
       24.868999       2.4358646
       25.129138       2.4929265
       25.391998       2.5258649
       25.657607       2.6299364
       25.925995       2.7819093
       26.197190       2.7830366
       26.471222       2.8180254
       26.748120       2.9285473
       27.027915       3.0610567
       27.310637       3.1138435
       27.596316       3.1558198
       27.884983       3.2902800
       28.176670       3.4126149
       28.471408       3.4422324
       28.769230       3.4742780
       29.070166       3.5972253
       29.374250       3.7270287
       29.681515       3.8257273
       29.991995       3.8869523
       30.305722       4.0057317
       30.622730       4.1667945
       30.943055       4.2445955
       31.266731       4.3775506
       31.593792       4.4944543
       31.924274       4.6619875
       32.258213       4.9335712
       32.595646       5.0183084
       32.936608       5.3759338
       33.281137       5.9482843
       33.629269       6.3730815
       33.981044       5.7537841
       34.336497       5.7950181
       34.695669       6.6851093
       35.058599       6.4938015
       35.425324       6.0433635
       35.795886       6.0897627
       36.170323       6.3043567
       36.548678       6.3486700
       36.930990       6.5385231
       37.317302       6.4654511
       37.707654       6.5865249
       38.102089       6.7077097
       38.500651       6.8290252
       38.903382       6.9502962
       39.310325       7.0717077
       39.721525       7.1930366
       40.137026       7.3144043
       40.556874       7.4357531
       40.981113       7.5569790
       41.409790       7.6782358
       41.842952       7.7992354
       42.280644       7.9201974
       42.722915       8.0409662
       43.169812       8.1615165
       43.621383       8.2819513
       44.077679       8.4019789
       44.538747       8.5218538
       45.004638       8.6413424
       45.475403       8.7605079
       45.951092       8.8793675
       46.431757       8.9976897
       46.917449       9.1157135
       47.408223       9.2331267
       47.904130       9.3501042
       48.405224       9.4665447
       48.911560       9.5823211
       49.423192       9.6976300
       49.940177       9.8120709
       50.462569       9.9259475
       50.990425       10.039038
       51.523803       10.151316
       52.062761       10.262894
       52.607356       10.373397
       53.157648       10.483158
       53.713696       10.591844
       54.275560       10.699556
       54.843302       10.806288
       55.416982       10.911758
       55.996664       11.016266
       56.582409       11.119376
       57.174281       11.221335
       57.772345       11.321995
       58.376664       11.421194
       58.987305       11.519180
       59.604333       11.615407
       60.227816       11.710299
       60.857820       11.803526
       61.494415       11.895080
       62.137669       11.985085
       62.787651       12.073049
       63.444432       12.159412
       64.108084       12.243710
       64.778677       12.326098
       65.456285       12.406544
       66.140981       12.484692
       66.832840       12.560921
       67.531935       12.634637
       68.238343       12.706200
       68.952141       12.775371
       69.673405       12.841966
       70.402214       12.906302
       71.138646       12.967633
       71.882782       13.026540
       72.634701       13.082574
       73.394486       13.135732
       74.162219       13.186151
       74.937982       13.233224
       75.721860       13.277498
       76.513938       13.318347
       77.314301       13.356019
       78.123037       13.390417
       78.940231       13.421116
       79.765975       13.448594
       80.600355       13.472068
       81.443464       13.492026
       82.295392       13.508130
       83.156231       13.520177
       84.026075       13.528540
       84.905018       13.532264
       85.793154       13.532128
       86.690581       13.527497
       87.597396       13.518430
       88.513696       13.505057
       89.439581       13.486630
       90.375151       13.463843
       91.320507       13.435878
       92.275753       13.403083
       93.240990       13.365307
       94.216324       13.322056
       95.201861       13.273906
       96.197706       13.219853
       97.203969       13.160562
       98.220757       13.095571
       99.248181       13.025158
       100.28635       12.975484
       101.33538       12.979971
       102.39539       12.978451
       103.46648       12.970995
       104.54878       12.957685
       105.64239       12.938607
       106.74745       12.913857
       107.86407       12.883534
       108.99237       12.847746
       110.13246       12.806604
       111.28449       12.760226
       112.44856       12.708735
       113.62482       12.652257
       114.81337       12.590924
       116.01436       12.524870
       117.22791       12.454235
       118.45416       12.379159
       119.69323       12.299786
       120.94527       12.216264
       122.21040       12.128740
       123.48876       12.037366
       124.78050       11.942293
       126.08575       11.843673
       127.40465       11.741660
       128.73735       11.636408
       130.08399       11.528072
       131.44471       11.416804
       132.81967       11.302760
       134.20901       11.186091
       135.61289       11.066950
       137.03145       10.945487
       138.46484       10.821853
       139.91323       10.696195
       141.37678       10.568660
       142.85563       10.439392
       144.34995       10.308533
       145.85990       10.176224
       147.38565       10.042600
       148.92736       9.9077988
       150.48519       9.7719510
       152.05932       9.6351863
       153.64991       9.4976312
       155.25715       9.3594091
       156.88119       9.2206403
       158.52222       9.0814419
       160.18042       8.9419279
       161.85597       8.8022087
       163.54904       8.6623915
       165.25982       8.5225802
       166.98850       8.3828751
       168.73526       8.2433730
       170.50029       8.1041676
       172.28378       7.9653486
       174.08593       7.8270027
       175.90693       7.6892128
       177.74698       7.5520586
       179.60628       7.4156162
       181.48503       7.2799585
       183.38342       7.1451546
       185.30168       7.0112709
       187.24000       6.8783698
       189.19860       6.7465111
       191.17769       6.6157509
       193.17747       6.4861425
       195.19818       6.3577358
       197.24002       6.2305778
       199.30322       6.1047127
       201.38801       5.9801816
       203.49460       5.8570226
       205.62322       5.7352714
       207.77411       5.6149607
       209.94751       5.4961207
       212.14363       5.3787790
       214.36273       5.2629607
       216.60504       5.1486884
       218.87081       5.0359826
       221.16027       4.9248612
       223.47369       4.8153402
       225.81130       4.7074334
       228.17337       4.6011524
       230.56015       4.4965071
       232.97189       4.3935052
       235.40886       4.2921529
       237.87132       4.1924544
       240.35954       4.0944123
       242.87378       3.9980278
       245.41433       3.9033001
       247.98145       3.8102275
       250.57543       3.7188064
       253.19654       3.6290322
       255.84506       3.5408990
       258.52129       3.4543995
       261.22552       3.3695255
       263.95803       3.2862676
       266.71913       3.2046155
       269.50910       3.1245576
       272.32827       3.0460819
       275.17692       2.9691753
       278.05537       2.8938238
       280.96393       2.8200129
       283.90291       2.7477272
       286.87263       2.6769508
       289.87342       2.6076673
       292.90560       2.5398595
       295.96950       2.4735098
       299.06545       2.4086003
       302.19378       2.3451124
       305.35484       2.2830274
       308.54896       2.2223262
       311.77649       2.1629892
       315.03778       2.1049968
       318.33319       2.0483290
       321.66307       1.9929656
       325.02778       1.9388863
       328.42769       1.8860708
       331.86316       1.8344982
       335.33457       1.7841482
       338.84229       1.7349998
       342.38670       1.6870325
       345.96818       1.6402253
       349.58714       1.5945576
       353.24394       1.5500087
       356.93900       1.5065578
       360.67271       1.4641844
       364.44548       1.4228680
       368.25771       1.3825882
       372.10981       1.3433247
       376.00221       1.3050572
       379.93533       1.2677659
       383.90959       1.2314308
       387.92542       1.1960324
       391.98326       1.1615510
       396.08355       1.1279674
       400.22672       1.0952625
       404.41324       1.0634174
       408.64354       1.0324134
       412.91810       1.0022321
       417.23737      0.97285525
       421.60183      0.94426487
       426.01193      0.91644323
       430.46817      0.88937284
       434.97102      0.86303647
       439.52097      0.83741714
       444.11852      0.81249813
       448.76416      0.78826298
       453.45839      0.76469549
       458.20173      0.74177973
       462.99468      0.71950005
       467.83777      0.69784105
       472.73152      0.67678761
       477.67646      0.65632487
       482.67313      0.63643825
       487.72206      0.61711343
       492.82381      0.59833636
       497.97893      0.58009328
       503.18796      0.56237066
       508.45149      0.54515526
       513.77007      0.52843409
       519.14429      0.51219445
       524.57473      0.49642386
       530.06197      0.48111013
       535.60661      0.46624131
       541.20924      0.45180571
       546.87048      0.43779189
       552.59095      0.42418865
       558.37124      0.41098506
       564.21201      0.39817040
       570.11387      0.38573420
       576.07746      0.37366625
       582.10344      0.36195655
       588.19245      0.35059532
       594.34515      0.33957303
       600.56222      0.32888037
       606.84431      0.31850824
       613.19212      0.30844775
       619.60633      0.29869025
       626.08763      0.28922727
       632.63673      0.28005056
       639.25434      0.27115208
       645.94117      0.26252397
       652.69794      0.25415857
       659.52540      0.24604841
       666.42427      0.23818624
       673.39531      0.23056494
       680.43926      0.22317760
       687.55690      0.21601750
       694.74899      0.20907806
       702.01632      0.20235291
       709.35966      0.19583580
       716.77981      0.18952068
       724.27759      0.18340165
       731.85379      0.17747296
       739.50924      0.17172901
       747.24477      0.16616437
       755.06122      0.16077372
       762.95943      0.15555193
       770.94026      0.15049397
       779.00457      0.14559496
       787.15324      0.14085016
       795.38714      0.13625495
       803.70718      0.13180485
       812.11424      0.12749549
       820.60925      0.12332262
       829.19311      0.11928213
       837.86677      0.11537000
       846.63116      0.11158235
       855.48722      0.10791537
       864.43592      0.10436540
       873.47823      0.10092886
       882.61513     0.097602279
       891.84760     0.094382282
       901.17664     0.091265592
       910.60327     0.088249029
       920.12851     0.085329503
       929.75338     0.082504013
       939.47893     0.079769647
       949.30622     0.077123576
       959.23630     0.074563054
       969.27026     0.072085418
       979.40917     0.069688080
       989.65414     0.067368531
       1000.0063     0.065124334
